 Legend
 2020-11-07 17-42-01 "2L7.8/7.8" ||| Режим: #1 : "4600            "; ^^^4600экспресс оценка^^^
 Файл : 4600об.мин.ind
 

  ИНДИКАТОРНАЯ ДИАГРАММА:                                               
 Comment
 Fi          Угол поворота коленчатого вала, [град.]                     
 Pc          Давление в цилиндре, [бар]                                  
 Tc          Температура в цилиндре, [К]                                 
 T_сз        Температура в зоне свежего заряда, [K]                      
 T_ог        Температура в зоне отработавших газов, [K]                  
 V           Объем цилиндра, [куб. м]                                    
 Alf_w       Коэффициент теплоотдачи в цилиндре (Woschni), [Вт/(м2 К)]   
 P_1ring     Давление за первым поршневым кольцом, [бар]                 
 G_bb        Расход газа перетек. через первое поршневое кольцо, [кг/с]  
 P_pist      Позиция поршня относительно НМТ, [мм]                       
 x           Доля выделившегося тепла                                    
Names
Fi        Pc        Tc        T_сз      T_ог      V         Alf_w     P_1ring   G_bb      P_pist    x
Arrays
 180.0      1.08   415.42      0.20000E+26  0.20000E+26    0.455537E-03   454.5   1.0110      0.19751E-04      0.000  0.20000E+26
 181.0      1.08   415.59      0.20000E+26  0.20000E+26    0.455518E-03   454.9   1.0114      0.19773E-04      0.004  0.20000E+26
 182.0      1.09   415.77      0.20000E+26  0.20000E+26    0.455460E-03   455.3   1.0118      0.19795E-04      0.016  0.20000E+26
 183.0      1.09   415.97      0.20000E+26  0.20000E+26    0.455364E-03   455.6   1.0122      0.19815E-04      0.036  0.20000E+26
 184.0      1.09   416.17      0.20000E+26  0.20000E+26    0.455229E-03   456.0   1.0126      0.19835E-04      0.064  0.20000E+26
 185.0      1.09   416.38      0.20000E+26  0.20000E+26    0.455056E-03   456.3   1.0130      0.19854E-04      0.101  0.20000E+26
 186.0      1.09   416.60      0.20000E+26  0.20000E+26    0.454845E-03   456.6   1.0134      0.19873E-04      0.145  0.20000E+26
 187.0      1.09   416.83      0.20000E+26  0.20000E+26    0.454595E-03   456.9   1.0138      0.19891E-04      0.197  0.20000E+26
 188.0      1.09   417.06      0.20000E+26  0.20000E+26    0.454306E-03   457.2   1.0142      0.19908E-04      0.258  0.20000E+26
 189.0      1.10   417.29      0.20000E+26  0.20000E+26    0.453979E-03   457.5   1.0146      0.19925E-04      0.326  0.20000E+26
 190.0      1.10   417.52      0.20000E+26  0.20000E+26    0.453613E-03   457.7   1.0149      0.19942E-04      0.403  0.20000E+26
 191.0      1.10   417.74      0.20000E+26  0.20000E+26    0.453209E-03   458.0   1.0153      0.19958E-04      0.487  0.20000E+26
 192.0      1.10   417.96      0.20000E+26  0.20000E+26    0.452766E-03   458.2   1.0156      0.19973E-04      0.580  0.20000E+26
 193.0      1.10   418.18      0.20000E+26  0.20000E+26    0.452284E-03   458.5   1.0160      0.19989E-04      0.681  0.20000E+26
 194.0      1.10   418.40      0.20000E+26  0.20000E+26    0.451763E-03   458.7   1.0163      0.20004E-04      0.790  0.20000E+26
 195.0      1.10   418.62      0.20000E+26  0.20000E+26    0.451203E-03   459.0   1.0166      0.20019E-04      0.907  0.20000E+26
 196.0      1.10   418.83      0.20000E+26  0.20000E+26    0.450604E-03   459.2   1.0170      0.20034E-04      1.032  0.20000E+26
 197.0      1.10   419.05      0.20000E+26  0.20000E+26    0.449967E-03   459.5   1.0173      0.20049E-04      1.166  0.20000E+26
 198.0      1.11   419.27      0.20000E+26  0.20000E+26    0.449290E-03   459.7   1.0176      0.20065E-04      1.307  0.20000E+26
 199.0      1.11   419.49      0.20000E+26  0.20000E+26    0.448574E-03   460.0   1.0180      0.20081E-04      1.457  0.20000E+26
 200.0      1.11   419.72      0.20000E+26  0.20000E+26    0.447819E-03   460.3   1.0184      0.20097E-04      1.615  0.20000E+26
 201.0      1.11   419.94      0.20000E+26  0.20000E+26    0.447025E-03   460.5   1.0187      0.20114E-04      1.781  0.20000E+26
 202.0      1.11   420.17      0.20000E+26  0.20000E+26    0.446191E-03   460.8   1.0191      0.20132E-04      1.956  0.20000E+26
 203.0      1.11   420.41      0.20000E+26  0.20000E+26    0.445317E-03   461.1   1.0195      0.20150E-04      2.139  0.20000E+26
 204.0      1.11   420.65      0.20000E+26  0.20000E+26    0.444405E-03   461.4   1.0199      0.20169E-04      2.330  0.20000E+26
 205.0      1.11   420.89      0.20000E+26  0.20000E+26    0.443452E-03   461.8   1.0203      0.20188E-04      2.529  0.20000E+26
 206.0      1.12   421.15      0.20000E+26  0.20000E+26    0.442460E-03   462.1   1.0208      0.20209E-04      2.737  0.20000E+26
 207.0      1.12   421.41      0.20000E+26  0.20000E+26    0.441429E-03   462.5   1.0212      0.20231E-04      2.953  0.20000E+26
 208.0      1.12   421.67      0.20000E+26  0.20000E+26    0.440357E-03   462.9   1.0217      0.20254E-04      3.177  0.20000E+26
 209.0      1.12   421.95      0.20000E+26  0.20000E+26    0.439246E-03   463.3   1.0222      0.20279E-04      3.409  0.20000E+26
 210.0      1.12   422.23      0.20000E+26  0.20000E+26    0.438094E-03   463.7   1.0228      0.20304E-04      3.650  0.20000E+26
 211.0      1.12   422.52      0.20000E+26  0.20000E+26    0.436903E-03   464.2   1.0234      0.20332E-04      3.900  0.20000E+26
 212.0      1.13   422.82      0.20000E+26  0.20000E+26    0.435671E-03   464.6   1.0240      0.20360E-04      4.157  0.20000E+26
 213.0      1.13   423.13      0.20000E+26  0.20000E+26    0.434400E-03   465.1   1.0246      0.20391E-04      4.423  0.20000E+26
 214.0      1.13   423.46      0.20000E+26  0.20000E+26    0.433088E-03   465.7   1.0252      0.20423E-04      4.698  0.20000E+26
 215.0      1.13   423.79      0.20000E+26  0.20000E+26    0.431736E-03   466.2   1.0259      0.20456E-04      4.981  0.20000E+26
 216.0      1.14   424.13      0.20000E+26  0.20000E+26    0.430344E-03   466.8   1.0267      0.20492E-04      5.272  0.20000E+26
 217.0      1.14   424.49      0.20000E+26  0.20000E+26    0.428912E-03   467.5   1.0274      0.20529E-04      5.572  0.20000E+26
 218.0      1.14   424.85      0.20000E+26  0.20000E+26    0.427439E-03   468.1   1.0282      0.20569E-04      5.880  0.20000E+26
 219.0      1.14   425.23      0.20000E+26  0.20000E+26    0.425926E-03   468.8   1.0291      0.20610E-04      6.197  0.20000E+26
 220.0      1.15   425.63      0.20000E+26  0.20000E+26    0.424373E-03   469.6   1.0300      0.20654E-04      6.522  0.20000E+26
 221.0      1.15   426.04      0.20000E+26  0.20000E+26    0.422780E-03   470.4   1.0309      0.20700E-04      6.855  0.20000E+26
 222.0      1.15   426.46      0.20000E+26  0.20000E+26    0.421146E-03   471.2   1.0319      0.20748E-04      7.197  0.20000E+26
 223.0      1.16   426.90      0.20000E+26  0.20000E+26    0.419472E-03   472.0   1.0329      0.20799E-04      7.548  0.20000E+26
 224.0      1.16   427.35      0.20000E+26  0.20000E+26    0.417758E-03   472.9   1.0340      0.20853E-04      7.906  0.20000E+26
 225.0      1.16   427.82      0.20000E+26  0.20000E+26    0.416003E-03   473.9   1.0351      0.20909E-04      8.274  0.20000E+26
 226.0      1.17   428.31      0.20000E+26  0.20000E+26    0.414208E-03   474.9   1.0363      0.20968E-04      8.649  0.20000E+26
 227.0      1.17   428.81      0.20000E+26  0.20000E+26    0.412374E-03   476.0   1.0375      0.21030E-04      9.033  0.20000E+26
 228.0      1.18   429.33      0.20000E+26  0.20000E+26    0.410499E-03   477.1   1.0388      0.21096E-04      9.425  0.20000E+26
 229.0      1.18   429.88      0.20000E+26  0.20000E+26    0.408584E-03   478.2   1.0402      0.21164E-04      9.826  0.20000E+26
 230.0      1.19   430.44      0.20000E+26  0.20000E+26    0.406630E-03   479.4   1.0416      0.21236E-04     10.235  0.20000E+26
 231.0      1.19   431.02      0.20000E+26  0.20000E+26    0.404636E-03   480.7   1.0432      0.21312E-04     10.652  0.20000E+26
 232.0      1.20   431.63      0.20000E+26  0.20000E+26    0.402602E-03   482.1   1.0447      0.21391E-04     11.078  0.20000E+26
 233.0      1.20   432.26      0.20000E+26  0.20000E+26    0.400529E-03   483.5   1.0464      0.21474E-04     11.512  0.20000E+26
 234.0      1.21   432.91      0.20000E+26  0.20000E+26    0.398417E-03   484.9   1.0481      0.21562E-04     11.954  0.20000E+26
 235.0      1.21   433.58      0.20000E+26  0.20000E+26    0.396266E-03   486.5   1.0500      0.21653E-04     12.404  0.20000E+26
 236.0      1.22   434.29      0.20000E+26  0.20000E+26    0.394076E-03   488.1   1.0519      0.21750E-04     12.862  0.20000E+26
 237.0      1.23   435.02      0.20000E+26  0.20000E+26    0.391847E-03   489.8   1.0539      0.21851E-04     13.329  0.20000E+26
 238.0      1.23   435.77      0.20000E+26  0.20000E+26    0.389580E-03   491.6   1.0560      0.21957E-04     13.803  0.20000E+26
 239.0      1.24   436.56      0.20000E+26  0.20000E+26    0.387275E-03   493.5   1.0582      0.22068E-04     14.286  0.20000E+26
 240.0      1.25   437.37      0.20000E+26  0.20000E+26    0.384932E-03   495.4   1.0605      0.22183E-04     14.776  0.20000E+26
 241.0      1.26   438.20      0.20000E+26  0.20000E+26    0.382551E-03   497.5   1.0629      0.22303E-04     15.274  0.20000E+26
 242.0      1.26   439.07      0.20000E+26  0.20000E+26    0.380133E-03   499.6   1.0654      0.22429E-04     15.780  0.20000E+26
 243.0      1.27   439.96      0.20000E+26  0.20000E+26    0.377679E-03   501.8   1.0680      0.22560E-04     16.294  0.20000E+26
 244.0      1.28   440.88      0.20000E+26  0.20000E+26    0.375187E-03   504.1   1.0707      0.22696E-04     16.815  0.20000E+26
 245.0      1.29   441.83      0.20000E+26  0.20000E+26    0.372660E-03   506.4   1.0735      0.22838E-04     17.344  0.20000E+26
 246.0      1.30   442.81      0.20000E+26  0.20000E+26    0.370097E-03   508.9   1.0765      0.22987E-04     17.881  0.20000E+26
 247.0      1.31   443.83      0.20000E+26  0.20000E+26    0.367498E-03   511.5   1.0795      0.23141E-04     18.424  0.20000E+26
 248.0      1.32   444.87      0.20000E+26  0.20000E+26    0.364865E-03   514.2   1.0827      0.23302E-04     18.976  0.20000E+26
 249.0      1.33   445.96      0.20000E+26  0.20000E+26    0.362197E-03   517.0   1.0861      0.23470E-04     19.534  0.20000E+26
 250.0      1.35   447.08      0.20000E+26  0.20000E+26    0.359495E-03   519.9   1.0896      0.23646E-04     20.099  0.20000E+26
 251.0      1.36   448.23      0.20000E+26  0.20000E+26    0.356759E-03   523.0   1.0932      0.23829E-04     20.672  0.20000E+26
 252.0      1.37   449.43      0.20000E+26  0.20000E+26    0.353991E-03   526.1   1.0970      0.24020E-04     21.251  0.20000E+26
 253.0      1.38   450.67      0.20000E+26  0.20000E+26    0.351190E-03   529.4   1.1010      0.24219E-04     21.837  0.20000E+26
 254.0      1.40   451.94      0.20000E+26  0.20000E+26    0.348358E-03   532.9   1.1052      0.24427E-04     22.430  0.20000E+26
 255.0      1.41   453.26      0.20000E+26  0.20000E+26    0.345494E-03   536.4   1.1095      0.24644E-04     23.029  0.20000E+26
 256.0      1.43   454.62      0.20000E+26  0.20000E+26    0.342600E-03   540.2   1.1140      0.24869E-04     23.635  0.20000E+26
 257.0      1.44   456.02      0.20000E+26  0.20000E+26    0.339676E-03   544.0   1.1187      0.25102E-04     24.247  0.20000E+26
 258.0      1.46   457.44      0.20000E+26  0.20000E+26    0.336723E-03   547.9   1.1235      0.25343E-04     24.865  0.20000E+26
 259.0      1.48   458.90      0.20000E+26  0.20000E+26    0.333741E-03   552.0   1.1285      0.25592E-04     25.489  0.20000E+26
 260.0      1.49   460.40      0.20000E+26  0.20000E+26    0.330731E-03   556.2   1.1337      0.25850E-04     26.119  0.20000E+26
 261.0      1.51   461.93      0.20000E+26  0.20000E+26    0.327694E-03   560.5   1.1391      0.26116E-04     26.755  0.20000E+26
 262.0      1.53   463.50      0.20000E+26  0.20000E+26    0.324631E-03   565.0   1.1446      0.26391E-04     27.396  0.20000E+26
 263.0      1.55   465.11      0.20000E+26  0.20000E+26    0.321542E-03   569.6   1.1504      0.26677E-04     28.042  0.20000E+26
 264.0      1.57   466.75      0.20000E+26  0.20000E+26    0.318429E-03   574.4   1.1564      0.26971E-04     28.694  0.20000E+26
 265.0      1.59   468.44      0.20000E+26  0.20000E+26    0.315291E-03   579.3   1.1626      0.27277E-04     29.350  0.20000E+26
 266.0      1.61   470.17      0.20000E+26  0.20000E+26    0.312131E-03   584.4   1.1690      0.27592E-04     30.012  0.20000E+26
 267.0      1.63   471.94      0.20000E+26  0.20000E+26    0.308949E-03   589.7   1.1756      0.27919E-04     30.678  0.20000E+26
 268.0      1.65   473.75      0.20000E+26  0.20000E+26    0.305745E-03   595.1   1.1825      0.28258E-04     31.348  0.20000E+26
 269.0      1.68   475.59      0.20000E+26  0.20000E+26    0.302521E-03   600.7   1.1896      0.28455E-04     32.023  0.20000E+26
 270.0      1.70   477.48      0.20000E+26  0.20000E+26    0.299278E-03   606.4   1.1970      0.28815E-04     32.701  0.20000E+26
 271.0      1.73   479.41      0.20000E+26  0.20000E+26    0.296016E-03   612.4   1.2047      0.29189E-04     33.384  0.20000E+26
 272.0      1.76   481.38      0.20000E+26  0.20000E+26    0.292738E-03   278.6   1.2126      0.29575E-04     34.070  0.20000E+26
 273.0      1.78   483.34      0.20000E+26  0.20000E+26    0.289442E-03   281.4   1.2208      0.29973E-04     34.760  0.20000E+26
 274.0      1.81   485.33      0.20000E+26  0.20000E+26    0.286132E-03   284.3   1.2292      0.30382E-04     35.452  0.20000E+26
 275.0      1.84   487.36      0.20000E+26  0.20000E+26    0.282807E-03   287.3   1.2379      0.30803E-04     36.148  0.20000E+26
 276.0      1.87   489.43      0.20000E+26  0.20000E+26    0.279470E-03   290.4   1.2468      0.31237E-04     36.847  0.20000E+26
 277.0      1.90   491.53      0.20000E+26  0.20000E+26    0.276120E-03   293.5   1.2561      0.31684E-04     37.548  0.20000E+26
 278.0      1.93   493.68      0.20000E+26  0.20000E+26    0.272759E-03   296.8   1.2656      0.32144E-04     38.251  0.20000E+26
 279.0      1.96   495.86      0.20000E+26  0.20000E+26    0.269389E-03   300.1   1.2755      0.32618E-04     38.956  0.20000E+26
 280.0      2.00   498.08      0.20000E+26  0.20000E+26    0.266010E-03   303.5   1.2856      0.33106E-04     39.664  0.20000E+26
 281.0      2.03   500.34      0.20000E+26  0.20000E+26    0.262624E-03   307.0   1.2961      0.33609E-04     40.372  0.20000E+26
 282.0      2.07   502.64      0.20000E+26  0.20000E+26    0.259231E-03   310.6   1.3069      0.34127E-04     41.082  0.20000E+26
 283.0      2.11   504.99      0.20000E+26  0.20000E+26    0.255834E-03   314.3   1.3181      0.34660E-04     41.793  0.20000E+26
 284.0      2.15   507.37      0.20000E+26  0.20000E+26    0.252433E-03   318.1   1.3297      0.35210E-04     42.505  0.20000E+26
 285.0      2.19   509.80      0.20000E+26  0.20000E+26    0.249030E-03   322.0   1.3416      0.35776E-04     43.217  0.20000E+26
 286.0      2.23   512.27      0.20000E+26  0.20000E+26    0.245625E-03   326.0   1.3539      0.36360E-04     43.930  0.20000E+26
 287.0      2.27   514.78      0.20000E+26  0.20000E+26    0.242220E-03   330.1   1.3666      0.36961E-04     44.642  0.20000E+26
 288.0      2.31   517.33      0.20000E+26  0.20000E+26    0.238817E-03   334.3   1.3797      0.37580E-04     45.354  0.20000E+26
 289.0      2.36   519.93      0.20000E+26  0.20000E+26    0.235416E-03   338.6   1.3932      0.38219E-04     46.066  0.20000E+26
 290.0      2.40   522.57      0.20000E+26  0.20000E+26    0.232020E-03   343.0   1.4072      0.38876E-04     46.777  0.20000E+26
 291.0      2.45   525.25      0.20000E+26  0.20000E+26    0.228629E-03   347.5   1.4217      0.39554E-04     47.487  0.20000E+26
 292.0      2.50   527.98      0.20000E+26  0.20000E+26    0.225245E-03   352.2   1.4366      0.40252E-04     48.195  0.20000E+26
 293.0      2.55   530.75      0.20000E+26  0.20000E+26    0.221868E-03   357.0   1.4520      0.40972E-04     48.901  0.20000E+26
 294.0      2.61   533.57      0.20000E+26  0.20000E+26    0.218501E-03   361.9   1.4680      0.41713E-04     49.606  0.20000E+26
 295.0      2.66   536.43      0.20000E+26  0.20000E+26    0.215145E-03   366.9   1.4844      0.42477E-04     50.308  0.20000E+26
 296.0      2.72   539.34      0.20000E+26  0.20000E+26    0.211801E-03   372.1   1.5014      0.43265E-04     51.008  0.20000E+26
 297.0      2.78   542.29      0.20000E+26  0.20000E+26    0.208471E-03   377.4   1.5190      0.44076E-04     51.705  0.20000E+26
 298.0      2.84   545.29      0.20000E+26  0.20000E+26    0.205156E-03   382.8   1.5371      0.44911E-04     52.399  0.20000E+26
 299.0      2.90   548.34      0.20000E+26  0.20000E+26    0.201857E-03   388.4   1.5559      0.45772E-04     53.089  0.20000E+26
 300.0      2.96   551.42      0.20000E+26  0.20000E+26    0.198576E-03   394.2   1.5752      0.46659E-04     53.776  0.20000E+26
 301.0      3.03   554.56      0.20000E+26  0.20000E+26    0.195314E-03   400.0   1.5952      0.47573E-04     54.459  0.20000E+26
 302.0      3.10   557.74      0.20000E+26  0.20000E+26    0.192073E-03   406.0   1.6158      0.48514E-04     55.137  0.20000E+26
 303.0      3.17   560.96      0.20000E+26  0.20000E+26    0.188854E-03   412.2   1.6371      0.49483E-04     55.811  0.20000E+26
 304.0      3.24   564.23      0.20000E+26  0.20000E+26    0.185658E-03   418.5   1.6591      0.50481E-04     56.479  0.20000E+26
 305.0      3.32   567.54      0.20000E+26  0.20000E+26    0.182487E-03   425.0   1.6819      0.51509E-04     57.143  0.20000E+26
 306.0      3.40   570.90      0.20000E+26  0.20000E+26    0.179343E-03   431.6   1.7053      0.52566E-04     57.801  0.20000E+26
 307.0      3.48   574.30      0.20000E+26  0.20000E+26    0.176226E-03   438.4   1.7295      0.53655E-04     58.453  0.20000E+26
 308.0      3.56   577.74      0.20000E+26  0.20000E+26    0.173138E-03   445.4   1.7545      0.54775E-04     59.100  0.20000E+26
 309.0      3.65   581.23      0.20000E+26  0.20000E+26    0.170081E-03   452.5   1.7802      0.55927E-04     59.739  0.20000E+26
 310.0      3.74   584.75      0.20000E+26  0.20000E+26    0.167056E-03   459.8   1.8068      0.57112E-04     60.372  0.20000E+26
 311.0      3.83   588.32      0.20000E+26  0.20000E+26    0.164064E-03   467.3   1.8342      0.58330E-04     60.999  0.20000E+26
 312.0      3.92   591.92      0.20000E+26  0.20000E+26    0.161106E-03   474.9   1.8624      0.59582E-04     61.618  0.20000E+26
 313.0      4.02   595.56      0.20000E+26  0.20000E+26    0.158185E-03   482.7   1.8915      0.60868E-04     62.229  0.20000E+26
 314.0      4.12   599.23      0.20000E+26  0.20000E+26    0.155301E-03   490.7   1.9215      0.62189E-04     62.832  0.20000E+26
 315.0      4.22   602.94      0.20000E+26  0.20000E+26    0.152456E-03   498.8   1.9523      0.63545E-04     63.428  0.20000E+26
 316.0      4.33   606.69      0.20000E+26  0.20000E+26    0.149651E-03   507.1   1.9841      0.64936E-04     64.015  0.20000E+26
 317.0      4.44   610.46      0.20000E+26  0.20000E+26    0.146888E-03   515.6   2.0167      0.66363E-04     64.593  0.20000E+26
 318.0      4.55   614.26      0.20000E+26  0.20000E+26    0.144167E-03   524.2   2.0502      0.67825E-04     65.162  0.20000E+26
 319.0      4.66   618.09      0.20000E+26  0.20000E+26    0.141491E-03   533.0   2.0847      0.69322E-04     65.723  0.20000E+26
 320.0      4.78   621.93      0.20000E+26  0.20000E+26    0.138860E-03   542.0   2.1201      0.70855E-04     66.273  0.20000E+26
 321.0      4.90   625.80      0.20000E+26  0.20000E+26    0.136275E-03   551.1   2.1563      0.72423E-04     66.814  0.20000E+26
 322.0      5.03   629.69      0.20000E+26  0.20000E+26    0.133739E-03   560.4   2.1935      0.74025E-04     67.345  0.20000E+26
 323.0      5.15   633.59      0.20000E+26  0.20000E+26    0.131251E-03   569.9   2.2316      0.75660E-04     67.865  0.20000E+26
 324.0      5.28   637.50      0.20000E+26  0.20000E+26    0.128814E-03   579.4   2.2705      0.77328E-04     68.375  0.20000E+26
